VERSION:    3.1A
ELEMENTS:   1
DATE:       
CHANNELS:   1110
ROIS:       8 
REAL_TIME:  0.000000 
LIVE_TIME:  0.000000 
CAL_OFFSET: 5.269620e+00 
CAL_SLOPE: 1.940928e-02 
CAL_QUAD: 0.000000e+00 
WAVELENGTH: 0.406600 
ROI_0_LEFT:  105 
ROI_0_RIGHT:  122 
ROI_0_LABEL:  CeO2 111& 
ROI_1_LEFT:  165 
ROI_1_RIGHT:  182 
ROI_1_LABEL:  CeO2 200& 
ROI_2_LEFT:  349 
ROI_2_RIGHT:  366 
ROI_2_LABEL:  CeO2 220& 
ROI_3_LEFT:  458 
ROI_3_RIGHT:  475 
ROI_3_LABEL:  CeO2 311& 
ROI_4_LEFT:  491 
ROI_4_RIGHT:  508 
ROI_4_LABEL:  CeO2 222& 
ROI_5_LEFT:  611 
ROI_5_RIGHT:  628 
ROI_5_LABEL:  CeO2 400& 
ROI_6_LEFT:  692 
ROI_6_RIGHT:  709 
ROI_6_LABEL:  CeO2 331& 
ROI_7_LEFT:  717 
ROI_7_RIGHT:  734 
ROI_7_LABEL:  CeO2 420& 
DATA: 
141.960710 
142.152540 
142.276810 
142.600510 
143.093890 
142.992280 
142.778440 
143.007770 
143.351500 
143.499300 
143.575700 
143.587750 
143.670330 
143.751110 
143.760570 
144.408630 
144.749620 
144.847500 
144.462630 
144.433400 
144.549730 
144.575300 
144.124630 
144.341890 
144.392580 
144.435650 
143.676740 
143.652340 
143.448430 
143.362930 
142.684070 
142.374240 
142.385130 
141.867690 
141.205000 
141.555910 
141.641920 
141.224820 
141.541230 
141.382430 
140.742480 
140.092300 
140.329360 
139.358670 
139.061890 
138.829330 
138.329450 
136.976330 
136.989610 
136.548290 
136.159710 
135.271070 
135.066670 
134.666230 
134.587840 
134.236830 
133.583300 
132.949750 
132.409230 
131.371660 
130.697040 
130.343430 
130.085050 
129.395770 
129.053760 
129.122240 
129.038710 
128.369250 
127.273570 
126.956480 
127.138420 
126.720560 
125.582050 
124.619220 
124.426670 
124.597050 
123.910640 
123.060260 
122.151010 
121.853120 
121.555050 
121.336930 
121.138750 
120.863170 
120.687920 
120.011720 
119.848370 
119.623690 
119.365030 
119.142960 
119.204580 
119.500880 
119.764080 
119.023450 
118.673720 
118.820050 
119.331630 
119.732010 
120.288240 
121.307950 
121.976080 
123.108060 
124.842380 
127.061230 
129.659180 
133.671620 
139.092440 
147.513950 
160.865630 
191.314120 
343.231230 
1595.500400 
4239.767600 
6191.759300 
4659.907200 
1709.049000 
363.091430 
194.042190 
160.855560 
145.193370 
134.478260 
127.969180 
122.407640 
118.292730 
114.587620 
111.527060 
108.854160 
106.811770 
105.088750 
103.722610 
102.310170 
100.964610 
99.689194 
98.845192 
97.882965 
96.922401 
95.681870 
95.013405 
94.685318 
94.118362 
93.046532 
92.349709 
91.574982 
90.738823 
90.280197 
90.047157 
90.003838 
89.836105 
89.269905 
88.582138 
87.673065 
86.994492 
86.750603 
86.529404 
86.494812 
86.365120 
86.095276 
85.866837 
85.858574 
85.649818 
85.592293 
85.503021 
85.732391 
86.574005 
87.340721 
88.162323 
89.606392 
92.137634 
96.617050 
111.506390 
218.428070 
757.397890 
1480.008500 
1565.545800 
875.569090 
289.623320 
117.660530 
97.026215 
89.868622 
86.607361 
84.087105 
82.118599 
80.789413 
79.427078 
78.320618 
77.759521 
77.281837 
76.763252 
76.022484 
75.405693 
74.892273 
74.568993 
73.981293 
73.691254 
73.214806 
72.705986 
72.173500 
72.279625 
72.322205 
71.728882 
70.893799 
70.634148 
70.570702 
70.434792 
70.282745 
69.922325 
69.403816 
69.208755 
69.203140 
68.981125 
68.523079 
68.187828 
68.119835 
68.057426 
67.836037 
67.431572 
67.230942 
67.113266 
66.937012 
67.152733 
67.300346 
67.273506 
67.020981 
66.288902 
65.673241 
65.676117 
65.721390 
65.333618 
64.802452 
64.785789 
64.745499 
64.763695 
64.570259 
64.063873 
64.089050 
64.234711 
64.220558 
63.912815 
63.454323 
63.212303 
63.146858 
62.994534 
62.838131 
62.792389 
62.676147 
62.549389 
62.512165 
62.614265 
62.736774 
62.551422 
62.364300 
62.347427 
62.332424 
62.233025 
62.138058 
62.051102 
62.300583 
62.520172 
62.451832 
62.190750 
62.267879 
62.511974 
62.806915 
63.260063 
63.900448 
65.134155 
67.523956 
71.166862 
74.082138 
74.663155 
72.467133 
68.963211 
65.991531 
64.214813 
63.282749 
63.100533 
62.932514 
62.398357 
61.738838 
61.540382 
62.066628 
62.212593 
62.130688 
62.016678 
61.841663 
61.773773 
61.833286 
61.876194 
61.957672 
62.083317 
62.210819 
62.519157 
62.522991 
62.177116 
61.984303 
62.004688 
62.020947 
62.045956 
62.107975 
62.039856 
62.047989 
62.195900 
62.237350 
62.319393 
62.295971 
62.150883 
62.190224 
62.226444 
62.160202 
62.153065 
62.086323 
62.065277 
62.219772 
62.243130 
62.315041 
62.519592 
62.833378 
62.826466 
62.716908 
62.667267 
62.800304 
62.786251 
62.917992 
63.071461 
63.174271 
63.284988 
63.462772 
63.514355 
63.681377 
63.987095 
63.960285 
63.932373 
64.124298 
64.429008 
64.768318 
65.059868 
65.466270 
66.028549 
66.870644 
67.504700 
67.888390 
68.062378 
68.639954 
69.376892 
70.462059 
71.543755 
72.948868 
74.954338 
77.066971 
79.395599 
83.083290 
88.572121 
97.401245 
116.555560 
200.421110 
933.457580 
2461.059100 
3570.175000 
2765.206100 
1113.382600 
296.411130 
132.132580 
103.162490 
91.789803 
85.099792 
80.725479 
77.666573 
75.540176 
74.395996 
73.395279 
71.504715 
70.073105 
68.847679 
67.893028 
67.172279 
66.604393 
65.816612 
65.187233 
65.025902 
64.871346 
64.519684 
63.830570 
63.245613 
63.213284 
63.199738 
62.848808 
62.635952 
62.328876 
62.065449 
61.863445 
61.834339 
61.531654 
61.324310 
61.262531 
61.410938 
61.503819 
61.438343 
61.329834 
61.155376 
61.003635 
60.935093 
60.691586 
60.486774 
60.475674 
60.534042 
60.488216 
60.674763 
60.941883 
61.095398 
61.196522 
61.017227 
60.719547 
60.557690 
60.586506 
60.660011 
60.742119 
60.845005 
60.878777 
60.721962 
60.596897 
60.685593 
60.539177 
60.601570 
60.905659 
60.999916 
60.613739 
60.548782 
60.753742 
60.818115 
60.838177 
60.946903 
61.045578 
61.162975 
61.250828 
61.343960 
61.578667 
61.575710 
61.630585 
61.868095 
62.119896 
62.277313 
62.436508 
62.642056 
62.873455 
63.015053 
63.381462 
63.854450 
64.135559 
64.364052 
64.874565 
65.400764 
66.101662 
67.019112 
67.956436 
69.130882 
70.450737 
71.793770 
73.802315 
76.600403 
79.839203 
84.447281 
92.912041 
110.788900 
201.727310 
723.798400 
2171.947300 
3141.564000 
2469.088100 
1056.302600 
289.591980 
125.588670 
98.392250 
88.346031 
82.551468 
78.602341 
75.658073 
73.399315 
71.742584 
70.461906 
69.382675 
68.321892 
67.437325 
66.834412 
66.480377 
66.055702 
65.866882 
65.723518 
65.462502 
65.444160 
65.678688 
66.229706 
67.224487 
68.655434 
70.167366 
71.716484 
74.688622 
94.432442 
200.213490 
447.790800 
578.803960 
430.983830 
219.547210 
97.244385 
72.464172 
67.264687 
65.310043 
64.291443 
63.605709 
62.966969 
62.616276 
62.428761 
62.245888 
61.810139 
61.580410 
61.493122 
61.406258 
61.074875 
60.638947 
60.497463 
60.430103 
60.431068 
60.416424 
60.511139 
60.609070 
60.442520 
60.179398 
60.086506 
60.112980 
60.127796 
60.147903 
60.105961 
60.012119 
59.941021 
59.973331 
59.917061 
59.683212 
59.629265 
59.601929 
59.669708 
59.714981 
59.609253 
59.621906 
59.998463 
60.179413 
59.826843 
59.516644 
59.626869 
59.840595 
59.968216 
59.964680 
59.824242 
59.692608 
59.678078 
59.805962 
59.921818 
59.684132 
59.491520 
59.627716 
59.718773 
59.825439 
59.811657 
59.825729 
59.831020 
59.796314 
59.742981 
59.736500 
59.790585 
59.883236 
60.075359 
60.162357 
60.047352 
59.930279 
59.945972 
59.991150 
59.943260 
59.953442 
59.941563 
59.911327 
59.943123 
59.889450 
59.788803 
59.802448 
59.837658 
59.768211 
59.925804 
60.223045 
60.356464 
60.261734 
60.140152 
60.174026 
60.244740 
60.379932 
60.537445 
60.486023 
60.441948 
60.569836 
60.714237 
60.965935 
60.960323 
61.039616 
61.140518 
61.149109 
61.220379 
61.482349 
61.704292 
61.905991 
62.050755 
62.199718 
62.432133 
62.884319 
63.436749 
63.746391 
64.205757 
65.209274 
67.073349 
71.308113 
91.857948 
191.554900 
467.925690 
632.932190 
496.452180 
252.858980 
103.150600 
73.563980 
68.494820 
66.623817 
65.668816 
64.893532 
64.365410 
63.951935 
63.276962 
62.763371 
62.531452 
62.389622 
62.330109 
62.180450 
62.057270 
61.788673 
61.573814 
61.462296 
61.397270 
61.490189 
61.369614 
61.236145 
61.292431 
61.336132 
61.382713 
61.356270 
61.396706 
61.409283 
61.433929 
61.490734 
61.624252 
61.690205 
61.810406 
61.898254 
61.788219 
61.860710 
62.054420 
62.432140 
62.697571 
62.991096 
63.636772 
64.464340 
65.291794 
66.351288 
67.317726 
67.428101 
66.999092 
66.333488 
65.518715 
64.626755 
63.992836 
63.692459 
63.648266 
63.667152 
63.629299 
63.650589 
63.688480 
63.818443 
64.173195 
64.565811 
64.706299 
64.894508 
65.257027 
65.473869 
65.689240 
66.408188 
67.001404 
67.435837 
68.195282 
69.348732 
70.697891 
72.750870 
75.858948 
81.529419 
97.797493 
202.295360 
617.853700 
1227.549800 
1367.551900 
848.241820 
323.168850 
124.170770 
89.298157 
80.343498 
76.334167 
73.975639 
72.206497 
70.922531 
70.134163 
69.578026 
69.030197 
68.684280 
68.687569 
68.732719 
69.019859 
69.536591 
70.305420 
71.546089 
73.704712 
78.664200 
101.678250 
236.111770 
566.222290 
867.864930 
742.192200 
358.618740 
141.881530 
85.232407 
74.914238 
71.228081 
69.104027 
67.735588 
66.675751 
65.920486 
65.092735 
64.268257 
63.891167 
63.569981 
63.387772 
63.084843 
62.623226 
62.387756 
62.154537 
61.917152 
61.672993 
61.403759 
61.197056 
61.034889 
60.749279 
60.631264 
60.613602 
60.418621 
60.049465 
59.634472 
59.650299 
59.806133 
59.988369 
59.938435 
59.416622 
58.918171 
58.679398 
58.494877 
58.461872 
58.603489 
58.394020 
58.201611 
58.172764 
58.301739 
58.153538 
57.837399 
57.740589 
57.532520 
57.217884 
57.297447 
57.510818 
57.435757 
57.154907 
56.927326 
56.831284 
56.730965 
56.612686 
56.653679 
56.664040 
56.550266 
56.526875 
56.511021 
56.444466 
56.352158 
56.061417 
55.996922 
56.059273 
56.011333 
56.012928 
56.062141 
56.063232 
55.966888 
56.066479 
56.124012 
56.022221 
56.120010 
56.431080 
56.526257 
56.640671 
56.807110 
56.948330 
57.303581 
57.890072 
58.490112 
58.912689 
59.439526 
60.508907 
61.688839 
62.955059 
64.681938 
67.588226 
73.853882 
99.827156 
235.332440 
653.420780 
1111.078700 
1033.466800 
551.762330 
200.044020 
92.798523 
73.537346 
67.324280 
64.001495 
61.779488 
60.468834 
59.713779 
58.611313 
57.693817 
57.026882 
56.480301 
56.210911 
55.792679 
55.267609 
54.918388 
54.658924 
54.392475 
54.192280 
54.047325 
54.064896 
53.810539 
53.671234 
53.750740 
53.632584 
53.428268 
53.295940 
53.285774 
53.277954 
53.014744 
52.766033 
52.918026 
53.152084 
52.733982 
52.418728 
52.648582 
52.955856 
53.069584 
53.015701 
52.995609 
52.936668 
52.908276 
52.901237 
52.958347 
53.319344 
53.665619 
53.537827 
53.398319 
53.377842 
53.507908 
53.805500 
54.379547 
54.772118 
55.034733 
55.475975 
56.268661 
57.163029 
58.176147 
60.000648 
62.668514 
67.739494 
85.255707 
199.485400 
583.804380 
1046.016700 
1074.715900 
623.032590 
212.319780 
88.988647 
69.726997 
64.083725 
61.008705 
59.030769 
57.498974 
56.557858 
56.049202 
55.115635 
54.150040 
53.913826 
53.827702 
53.674816 
53.398994 
53.035667 
52.894592 
52.652519 
52.325802 
51.919308 
51.664330 
51.616493 
51.361000 
51.338860 
51.308296 
51.217239 
51.425404 
51.385323 
51.078075 
50.836884 
50.814556 
50.895134 
50.673069 
50.787544 
50.908894 
50.731701 
50.680981 
50.474503 
50.633934 
50.694447 
50.445099 
50.464222 
50.474018 
50.386040 
50.563686 
50.901222 
51.009239 
51.139297 
51.470425 
51.892647 
52.126595 
52.228146 
52.253376 
52.087498 
52.002098 
52.103199 
51.653950 
51.017975 
50.897552 
50.761806 
50.733608 
50.625721 
49.993813 
50.015999 
50.254070 
50.096760 
50.115650 
50.527500 
50.695572 
50.537468 
50.652542 
50.376339 
50.249435 
50.166531 
50.254318 
50.504498 
50.600960 
50.798519 
50.684155 
50.376034 
50.504059 
50.962669 
50.987610 
50.696697 
50.841274 
50.917351 
50.779190 
50.974888 
50.939838 
51.209927 
51.753860 
52.125462 
52.232674 
52.266846 
52.808517 
53.242249 
53.548759 
55.037590 
59.120998 
75.235977 
149.851240 
286.672940 
349.438260 
260.946500 
136.245450 
74.552452 
59.863995 
56.225880 
55.091007 
54.049980 
53.198261 
52.359493 
51.885490 
52.392948 
52.434853 
52.318588 
52.386429 
51.908180 
51.674797 
51.782059 
51.614807 
51.776340 
52.004852 
52.149807 
52.401917 
52.140484 
51.622272 
51.443680 
51.329460 
50.982906 
50.996616 
51.703297 
51.752579 
51.420532 
51.383591 
51.499493 
52.028103 
52.096684 
52.035286 
52.340527 
52.684784 
52.358490 
52.281933 
52.788330 
53.196213 
53.440971 
53.517738 
53.627052 
53.487221 
53.545265 
53.755741 
54.880894 
56.769947 
58.115520 
59.445961 
61.204800 
65.525780 
77.392929 
137.792360 
375.952150 
779.901430 
934.991880 
627.866150 
251.345860 
104.815640 
74.149612 
65.859467 
62.721233 
61.213886 
59.835320 
58.346603 
58.619473 
59.441822 
59.233376 
59.277134 
60.122398 
66.423874 
96.318497 
214.943250 
438.580140 
510.021240 
327.644960 
161.891590 
83.749062 
64.942101 
60.014297 
57.864346 
56.504448 
55.055489 
54.844963 
54.251152 
54.039444 
53.812126 
52.894978 
52.312363 
52.330410 
52.159492 
52.190037 
52.566055 
51.936642 
51.570896 
51.581593 
51.033939 
51.995464 
52.488808 
51.550526 
50.308853 
50.313038 
51.683693 
51.973667 
52.571037 
52.927238 
52.970097 
53.903683 
54.380215 
53.744072 
51.656181 
50.303089 
51.432213 
